# Format: McStas Transmission file
# Single crystal Sapphire (Al2O3) transmission. T=300 K.
# Thickness: 0.081 [m] (3x2.7 cm plates, c-axis along beam).
# From: DFR Mildner et al, J Appl Cryst 26 (1993) 438 ; see also DC Tennant, Rev. Sci. Instrum., 59 (1988) 380.
# [ lambda(Angs) Transmission(% in 0-1) ]
# wavelength multiply
    0.1340    0.1153
    0.2034    0.1168
    0.2866    0.1199
    0.3136    0.1384
    0.3681    0.1630
    0.4510    0.1738
    0.4775    0.2045
    0.5161    0.2782
    0.5406    0.3581
    0.5808    0.3935
    0.6215    0.4150
    0.6741    0.4857
    0.6754    0.4565
    0.7142    0.5241
    0.7832    0.5349
    0.8098    0.5641
    0.8493    0.6148
    0.8622    0.6393
    0.9453    0.6455
    0.9856    0.6778
    1.0253    0.7254
    1.0383    0.7454
    1.1213    0.7531
    1.1623    0.7700
    1.2717    0.8100
    1.3127    0.8269
    1.4092    0.8439
    1.4776    0.8700
    1.4780    0.8608
    1.5326    0.8823
    1.6712    0.8900
    1.7409    0.8839
    1.8379    0.8886
    1.9908    0.8871
    2.1298    0.8841
    2.2965    0.8826
    2.4356    0.8765
    2.5191    0.8735
    2.6305    0.8674
    2.8665    0.8690
    3.0613    0.8614
    3.1031    0.8583
    3.1031    0.8583
    3.2283    0.8522
    3.2702    0.8476
    3.2702    0.8476
    3.3676    0.8415
    3.4510    0.8400
    3.5485    0.8355
    3.6182    0.8293
    3.6182    0.8293
    3.7156    0.8232
    3.7993    0.8156
    3.9106    0.8110
    3.9941    0.8064
    4.0776    0.8019
    4.2307    0.7943
    4.2866    0.7866
    4.2866    0.7866
    4.3562    0.7820
    4.3562    0.7820
    4.4953    0.7775
    4.6760    0.7745
    4.8567    0.7715
    5.0236    0.7654
    5.1765    0.7624
    5.3574    0.7547
    5.3992    0.7502
    5.3992    0.7502
    5.5107    0.7425
    5.5668    0.7287
    5.6914    0.7380
    5.8728    0.7181
    6.0256    0.7166
    6.1510    0.7090
    6.3040    0.7029
    6.4294    0.6922
    6.5270    0.6830
    6.6801    0.6769
    6.7498    0.6693
    6.7640    0.6631
    6.9584    0.6647
    7.0419    0.6602
    7.1532    0.6541
    7.2786    0.6464
    7.3482    0.6418
    7.3482    0.6418
    7.4736    0.6311
    7.5990    0.6220
    7.7663    0.6082
    7.8498    0.6021
    8.1278    0.5991
    8.2945    0.5977
    8.5304    0.6024
    8.6693    0.6009
    8.7942    0.6055
    8.8772    0.6132
    9.0296    0.6210
    9.1125    0.6318
    9.2510    0.6410
    9.3622    0.6380
    9.4598    0.6288
    9.4880    0.6196
    9.6684    0.6243
    9.7095    0.6381
    9.8340    0.6489
    9.8757    0.6490
    9.8757    0.6490
    9.9312    0.6490
    9.9312    0.6490
   10.0844    0.6398
   10.1819    0.6337
   10.2935    0.6215
   10.4742    0.6185
   10.5298    0.6169
   10.5298    0.6169
   10.5860    0.6016
   10.6283    0.5863
   10.7672    0.5848
   10.9064    0.5787
   11.0035    0.5803
   11.1559    0.5911
   11.2249    0.6003
   11.3499    0.6019
   11.5441    0.6066
   11.7243    0.6143
   11.8909    0.6159
   11.9186    0.6190
   12.0300    0.6129
