# TITLE Water D2O
# Reference: Soper J. Chem. Phys. 106 (1997) 247. See also Bosio Phys. Rev. A 39 (1989) 6612.
#
# Physical parameters:
# sigma_coh 15.411  coherent scattering cross section in [barn]
# sigma_inc 4.1008  incoherent scattering cross section in [barn]
# sigma_abs 0.0012  absorption scattering cross section in [barn]
# density   1.105   in [g/cm^3]
# weight    20.0270 in [g/mol]
# Temperature 293   in [K]
# T_m       273     melting temperature in [K]
# T_b       373     boiling temperature in [K]
#
# Format parameters: Q	S(Q)
# column_q  1
# column_Sq 2
    0.2500    0.6758
    0.3477    0.6860
    0.4453    0.6967
    0.5430    0.7074
    0.6406    0.7161
    0.7383    0.7249
    0.8359    0.7356
    0.9336    0.7471
    1.0312    0.7600
    1.1289    0.7748
    1.2265    0.7958
    1.3242    0.8281
    1.4218    0.8665
    1.5195    0.9378
    1.6171    1.0493
    1.7148    1.1235
    1.8124    1.1954
    1.9101    1.2729
    2.0077    1.2747
    2.1054    1.2505
    2.2030    1.2029
    2.3007    1.1498
    2.3983    1.0959
    2.4960    1.0701
    2.5936    1.0372
    2.6913    1.0188
    2.7889    0.9928
    2.8866    0.9757
    2.9842    0.9580
    3.0819    0.9372
    3.1795    0.9351
    3.2772    0.9353
    3.3748    0.9370
    3.4725    0.9441
    3.5701    0.9516
    3.6678    0.9579
    3.7654    0.9623
    3.8631    0.9602
    3.9607    0.9592
    4.0584    0.9585
    4.1560    0.9559
    4.2537    0.9510
    4.3513    0.9465
    4.4490    0.9428
    4.5466    0.9386
    4.6443    0.9348
    4.7419    0.9329
    4.8396    0.9329
    4.9372    0.9329
    5.0349    0.9355
    5.1326    0.9386
    5.2302    0.9422
    5.3279    0.9457
    5.4255    0.9500
    5.5232    0.9561
    5.6208    0.9622
    5.7185    0.9677
    5.8161    0.9721
    5.9138    0.9747
    6.0114    0.9799
    6.1091    0.9847
    6.2067    0.9890
    6.3044    0.9917
    6.4020    0.9938
    6.4997    0.9973
    6.5973    1.0015
    6.6950    1.0056
    6.7926    1.0080
    6.8903    1.0103
    6.9879    1.0127
    7.0856    1.0154
    7.1832    1.0192
    7.2809    1.0245
    7.3785    1.0272
    7.4762    1.0308
    7.5738    1.0350
    7.6715    1.0381
    7.7691    1.0407
    7.8668    1.0434
    7.9644    1.0461
    8.0621    1.0487
    8.1597    1.0511
    8.2574    1.0496
    8.3550    1.0482
    8.4527    1.0463
    8.5503    1.0442
    8.6480    1.0418
    8.7456    1.0383
    8.8433    1.0331
    8.9409    1.0301
    9.0386    1.0268
    9.1362    1.0226
    9.2339    1.0178
    9.3315    1.0174
    9.4292    1.0144
    9.5268    1.0109
    9.6245    1.0062
    9.7221    1.0014
    9.8198    0.9977
    9.9174    0.9931
   10.0151    0.9884
   10.1128    0.9838
   10.2104    0.9802
   10.3081    0.9767
   10.4057    0.9736
   10.5034    0.9706
   10.6010    0.9684
   10.6987    0.9684
   10.7963    0.9678
   10.8940    0.9665
   10.9916    0.9652
   11.0893    0.9668
   11.1869    0.9685
   11.2846    0.9686
   11.3822    0.9686
   11.4799    0.9686
   11.5775    0.9711
   11.6752    0.9738
   11.7728    0.9765
   11.8705    0.9801
   11.9681    0.9831
   12.0658    0.9862
   12.1634    0.9883
   12.2611    0.9895
   12.3587    0.9907
   12.4564    0.9923
   12.5540    0.9950
   12.6517    0.9969
   12.7493    0.9987
   12.8470    1.0011
   12.9446    1.0038
   13.0423    1.0065
   13.1399    1.0099
   13.2376    1.0107
   13.3352    1.0108
   13.4329    1.0117
   13.5305    1.0148
   13.6282    1.0162
   13.7258    1.0175
   13.8235    1.0184
   13.9211    1.0185
   14.0188    1.0185
   14.1164    1.0185
   14.2141    1.0185
   14.3117    1.0172
   14.4094    1.0151
   14.5070    1.0148
   14.6047    1.0148
   14.7023    1.0149
   14.8000    1.0149

